#orig_header understory_fertility4_U18_20150710
# understory_fertility4_U18_20150710
#site U18
#year 2015.0
#fertility 4.0
#export VNIR 1.0
#export VSWIR 0.0
#wl(nm) U18_2015
#source C:\data\2019\2019_onedrive\projektid\AIROBEST\data\understoryspectra.xlsx
 400.00	0.0161
 401.00	0.0161
 402.00	0.0161
 403.00	0.0162
 404.00	0.0162
 405.00	0.0163
 406.00	0.0164
 407.00	0.0165
 408.00	0.0166
 409.00	0.0167
 410.00	0.0168
 411.00	0.0168
 412.00	0.0169
 413.00	0.0170
 414.00	0.0171
 415.00	0.0172
 416.00	0.0173
 417.00	0.0174
 418.00	0.0175
 419.00	0.0176
 420.00	0.0178
 421.00	0.0179
 422.00	0.0180
 423.00	0.0181
 424.00	0.0182
 425.00	0.0183
 426.00	0.0184
 427.00	0.0185
 428.00	0.0186
 429.00	0.0187
 430.00	0.0187
 431.00	0.0188
 432.00	0.0189
 433.00	0.0190
 434.00	0.0190
 435.00	0.0191
 436.00	0.0192
 437.00	0.0193
 438.00	0.0194
 439.00	0.0195
 440.00	0.0196
 441.00	0.0197
 442.00	0.0198
 443.00	0.0199
 444.00	0.0201
 445.00	0.0202
 446.00	0.0204
 447.00	0.0205
 448.00	0.0207
 449.00	0.0209
 450.00	0.0210
 451.00	0.0212
 452.00	0.0214
 453.00	0.0215
 454.00	0.0217
 455.00	0.0218
 456.00	0.0219
 457.00	0.0220
 458.00	0.0221
 459.00	0.0222
 460.00	0.0223
 461.00	0.0224
 462.00	0.0225
 463.00	0.0225
 464.00	0.0226
 465.00	0.0227
 466.00	0.0227
 467.00	0.0228
 468.00	0.0229
 469.00	0.0229
 470.00	0.0230
 471.00	0.0231
 472.00	0.0232
 473.00	0.0233
 474.00	0.0234
 475.00	0.0235
 476.00	0.0236
 477.00	0.0237
 478.00	0.0238
 479.00	0.0239
 480.00	0.0240
 481.00	0.0241
 482.00	0.0243
 483.00	0.0244
 484.00	0.0245
 485.00	0.0246
 486.00	0.0247
 487.00	0.0249
 488.00	0.0250
 489.00	0.0252
 490.00	0.0254
 491.00	0.0255
 492.00	0.0258
 493.00	0.0260
 494.00	0.0262
 495.00	0.0265
 496.00	0.0268
 497.00	0.0272
 498.00	0.0276
 499.00	0.0280
 500.00	0.0284
 501.00	0.0289
 502.00	0.0295
 503.00	0.0301
 504.00	0.0307
 505.00	0.0315
 506.00	0.0322
 507.00	0.0331
 508.00	0.0340
 509.00	0.0350
 510.00	0.0361
 511.00	0.0372
 512.00	0.0384
 513.00	0.0396
 514.00	0.0409
 515.00	0.0422
 516.00	0.0436
 517.00	0.0450
 518.00	0.0464
 519.00	0.0478
 520.00	0.0493
 521.00	0.0508
 522.00	0.0522
 523.00	0.0537
 524.00	0.0551
 525.00	0.0565
 526.00	0.0579
 527.00	0.0592
 528.00	0.0605
 529.00	0.0616
 530.00	0.0628
 531.00	0.0638
 532.00	0.0648
 533.00	0.0657
 534.00	0.0665
 535.00	0.0672
 536.00	0.0679
 537.00	0.0685
 538.00	0.0691
 539.00	0.0696
 540.00	0.0701
 541.00	0.0705
 542.00	0.0709
 543.00	0.0712
 544.00	0.0716
 545.00	0.0719
 546.00	0.0723
 547.00	0.0726
 548.00	0.0730
 549.00	0.0733
 550.00	0.0737
 551.00	0.0741
 552.00	0.0745
 553.00	0.0748
 554.00	0.0752
 555.00	0.0754
 556.00	0.0756
 557.00	0.0758
 558.00	0.0759
 559.00	0.0758
 560.00	0.0758
 561.00	0.0756
 562.00	0.0754
 563.00	0.0751
 564.00	0.0748
 565.00	0.0744
 566.00	0.0739
 567.00	0.0734
 568.00	0.0729
 569.00	0.0723
 570.00	0.0718
 571.00	0.0712
 572.00	0.0706
 573.00	0.0701
 574.00	0.0695
 575.00	0.0690
 576.00	0.0685
 577.00	0.0681
 578.00	0.0677
 579.00	0.0673
 580.00	0.0670
 581.00	0.0667
 582.00	0.0664
 583.00	0.0662
 584.00	0.0660
 585.00	0.0658
 586.00	0.0656
 587.00	0.0655
 588.00	0.0654
 589.00	0.0653
 590.00	0.0652
 591.00	0.0652
 592.00	0.0652
 593.00	0.0652
 594.00	0.0652
 595.00	0.0652
 596.00	0.0653
 597.00	0.0653
 598.00	0.0654
 599.00	0.0655
 600.00	0.0656
 601.00	0.0656
 602.00	0.0657
 603.00	0.0657
 604.00	0.0658
 605.00	0.0658
 606.00	0.0658
 607.00	0.0657
 608.00	0.0657
 609.00	0.0656
 610.00	0.0655
 611.00	0.0654
 612.00	0.0653
 613.00	0.0652
 614.00	0.0650
 615.00	0.0649
 616.00	0.0648
 617.00	0.0647
 618.00	0.0646
 619.00	0.0646
 620.00	0.0646
 621.00	0.0646
 622.00	0.0646
 623.00	0.0647
 624.00	0.0648
 625.00	0.0650
 626.00	0.0652
 627.00	0.0654
 628.00	0.0656
 629.00	0.0658
 630.00	0.0660
 631.00	0.0662
 632.00	0.0663
 633.00	0.0664
 634.00	0.0664
 635.00	0.0663
 636.00	0.0662
 637.00	0.0659
 638.00	0.0657
 639.00	0.0653
 640.00	0.0649
 641.00	0.0645
 642.00	0.0640
 643.00	0.0635
 644.00	0.0630
 645.00	0.0626
 646.00	0.0621
 647.00	0.0617
 648.00	0.0614
 649.00	0.0611
 650.00	0.0610
 651.00	0.0608
 652.00	0.0607
 653.00	0.0606
 654.00	0.0606
 655.00	0.0606
 656.00	0.0605
 657.00	0.0605
 658.00	0.0604
 659.00	0.0603
 660.00	0.0601
 661.00	0.0599
 662.00	0.0596
 663.00	0.0594
 664.00	0.0591
 665.00	0.0589
 666.00	0.0587
 667.00	0.0586
 668.00	0.0585
 669.00	0.0584
 670.00	0.0585
 671.00	0.0585
 672.00	0.0587
 673.00	0.0589
 674.00	0.0592
 675.00	0.0595
 676.00	0.0599
 677.00	0.0604
 678.00	0.0609
 679.00	0.0615
 680.00	0.0622
 681.00	0.0631
 682.00	0.0642
 683.00	0.0655
 684.00	0.0670
 685.00	0.0688
 686.00	0.0708
 687.00	0.0731
 688.00	0.0757
 689.00	0.0786
 690.00	0.0817
 691.00	0.0852
 692.00	0.0890
 693.00	0.0930
 694.00	0.0972
 695.00	0.1016
 696.00	0.1062
 697.00	0.1109
 698.00	0.1158
 699.00	0.1207
 700.00	0.1256
 701.00	0.1305
 702.00	0.1354
 703.00	0.1401
 704.00	0.1448
 705.00	0.1494
 706.00	0.1539
 707.00	0.1583
 708.00	0.1626
 709.00	0.1668
 710.00	0.1710
 711.00	0.1751
 712.00	0.1792
 713.00	0.1833
 714.00	0.1874
 715.00	0.1914
 716.00	0.1954
 717.00	0.1993
 718.00	0.2031
 719.00	0.2069
 720.00	0.2105
 721.00	0.2141
 722.00	0.2175
 723.00	0.2209
 724.00	0.2241
 725.00	0.2272
 726.00	0.2301
 727.00	0.2328
 728.00	0.2355
 729.00	0.2380
 730.00	0.2404
 731.00	0.2427
 732.00	0.2449
 733.00	0.2469
 734.00	0.2488
 735.00	0.2506
 736.00	0.2523
 737.00	0.2539
 738.00	0.2554
 739.00	0.2568
 740.00	0.2582
 741.00	0.2595
 742.00	0.2607
 743.00	0.2619
 744.00	0.2630
 745.00	0.2640
 746.00	0.2650
 747.00	0.2659
 748.00	0.2668
 749.00	0.2676
 750.00	0.2683
 751.00	0.2690
 752.00	0.2697
 753.00	0.2705
 754.00	0.2713
 755.00	0.2722
 756.00	0.2732
 757.00	0.2741
 758.00	0.2750
 759.00	0.2758
 760.00	0.2765
 761.00	0.2772
 762.00	0.2778
 763.00	0.2783
 764.00	0.2787
 765.00	0.2791
 766.00	0.2794
 767.00	0.2796
 768.00	0.2798
 769.00	0.2800
 770.00	0.2803
 771.00	0.2806
 772.00	0.2811
 773.00	0.2816
 774.00	0.2821
 775.00	0.2826
 776.00	0.2830
 777.00	0.2835
 778.00	0.2840
 779.00	0.2845
 780.00	0.2850
 781.00	0.2854
 782.00	0.2859
 783.00	0.2864
 784.00	0.2869
 785.00	0.2874
 786.00	0.2879
 787.00	0.2884
 788.00	0.2889
 789.00	0.2894
 790.00	0.2899
 791.00	0.2903
 792.00	0.2908
 793.00	0.2913
 794.00	0.2917
 795.00	0.2922
 796.00	0.2927
 797.00	0.2931
 798.00	0.2936
 799.00	0.2941
 800.00	0.2945
 801.00	0.2950
 802.00	0.2954
 803.00	0.2959
 804.00	0.2963
 805.00	0.2968
 806.00	0.2972
 807.00	0.2977
 808.00	0.2981
 809.00	0.2986
 810.00	0.2991
 811.00	0.2996
 812.00	0.3001
 813.00	0.3006
 814.00	0.3011
 815.00	0.3015
 816.00	0.3020
 817.00	0.3024
 818.00	0.3028
 819.00	0.3032
 820.00	0.3036
 821.00	0.3040
 822.00	0.3043
 823.00	0.3047
 824.00	0.3050
 825.00	0.3053
 826.00	0.3057
 827.00	0.3061
 828.00	0.3064
 829.00	0.3068
 830.00	0.3071
 831.00	0.3074
 832.00	0.3078
 833.00	0.3081
 834.00	0.3084
 835.00	0.3088
 836.00	0.3091
 837.00	0.3094
 838.00	0.3098
 839.00	0.3101
 840.00	0.3104
 841.00	0.3107
 842.00	0.3110
 843.00	0.3113
 844.00	0.3116
 845.00	0.3118
 846.00	0.3121
 847.00	0.3124
 848.00	0.3127
 849.00	0.3130
 850.00	0.3133
 851.00	0.3136
 852.00	0.3139
 853.00	0.3142
 854.00	0.3146
 855.00	0.3149
 856.00	0.3152
 857.00	0.3156
 858.00	0.3159
 859.00	0.3162
 860.00	0.3165
 861.00	0.3168
 862.00	0.3171
 863.00	0.3174
 864.00	0.3177
 865.00	0.3180
 866.00	0.3183
 867.00	0.3186
 868.00	0.3189
 869.00	0.3192
 870.00	0.3194
 871.00	0.3197
 872.00	0.3200
 873.00	0.3203
 874.00	0.3207
 875.00	0.3210
 876.00	0.3214
 877.00	0.3218
 878.00	0.3221
 879.00	0.3225
 880.00	0.3228
 881.00	0.3232
 882.00	0.3236
 883.00	0.3240
 884.00	0.3244
 885.00	0.3248
 886.00	0.3252
 887.00	0.3256
 888.00	0.3260
 889.00	0.3264
 890.00	0.3269
 891.00	0.3273
 892.00	0.3278
 893.00	0.3283
 894.00	0.3287
 895.00	0.3291
 896.00	0.3295
 897.00	0.3299
 898.00	0.3302
 899.00	0.3305
 900.00	0.3308
 901.00	0.3311
 902.00	0.3314
 903.00	0.3316
 904.00	0.3319
 905.00	0.3321
 906.00	0.3323
 907.00	0.3326
 908.00	0.3329
 909.00	0.3332
 910.00	0.3336
 911.00	0.3340
 912.00	0.3343
 913.00	0.3346
 914.00	0.3349
 915.00	0.3352
 916.00	0.3354
 917.00	0.3355
 918.00	0.3357
 919.00	0.3358
 920.00	0.3359
 921.00	0.3361
 922.00	0.3364
 923.00	0.3366
 924.00	0.3368
 925.00	0.3368
 926.00	0.3368
 927.00	0.3368
 928.00	0.3369
 929.00	0.3369
 930.00	0.3370
 931.00	0.3370
 932.00	0.3371
 933.00	0.3371
 934.00	0.3373
 935.00	0.3374
 936.00	0.3375
 937.00	0.3376
 938.00	0.3376
 939.00	0.3376
 940.00	0.3376
 941.00	0.3374
 942.00	0.3372
 943.00	0.3369
 944.00	0.3366
 945.00	0.3363
 946.00	0.3361
 947.00	0.3359
 948.00	0.3357
 949.00	0.3355
 950.00	0.3354
 951.00	0.3354
 952.00	0.3353
 953.00	0.3352
 954.00	0.3349
 955.00	0.3344
 956.00	0.3340
 957.00	0.3337
 958.00	0.3333
 959.00	0.3331
 960.00	0.3330
 961.00	0.3328
 962.00	0.3325
 963.00	0.3322
 964.00	0.3320
 965.00	0.3321
 966.00	0.3322
 967.00	0.3323
 968.00	0.3325
 969.00	0.3325
 970.00	0.3326
 971.00	0.3328
 972.00	0.3330
 973.00	0.3331
 974.00	0.3333
 975.00	0.3333
 976.00	0.3333
 977.00	0.3334
 978.00	0.3333
 979.00	0.3333
 980.00	0.3332
 981.00	0.3332
 982.00	0.3332
 983.00	0.3333
 984.00	0.3333
 985.00	0.3333
 986.00	0.3333
 987.00	0.3334
 988.00	0.3337
 989.00	0.3341
 990.00	0.3344
 991.00	0.3347
 992.00	0.3350
 993.00	0.3353
 994.00	0.3357
 995.00	0.3362
 996.00	0.3367
 997.00	0.3373
 998.00	0.3378
 999.00	0.3383
1000.00	0.3387
1001.00	0.3392
1002.00	0.3396
1003.00	0.3401
1004.00	0.3405
1005.00	0.3409
1006.00	0.3414
1007.00	0.3418
1008.00	0.3422
1009.00	0.3426
1010.00	0.3430
1011.00	0.3434
1012.00	0.3438
1013.00	0.3443
1014.00	0.3448
1015.00	0.3452
1016.00	0.3457
1017.00	0.3462
1018.00	0.3467
1019.00	0.3472
1020.00	0.3477
1021.00	0.3482
1022.00	0.3487
1023.00	0.3492
1024.00	0.3497
1025.00	0.3502
1026.00	0.3507
1027.00	0.3512
1028.00	0.3517
1029.00	0.3522
1030.00	0.3527
1031.00	0.3533
1032.00	0.3538
1033.00	0.3543
1034.00	0.3548
1035.00	0.3552
1036.00	0.3557
1037.00	0.3562
1038.00	0.3567
1039.00	0.3571
1040.00	0.3576
1041.00	0.3580
1042.00	0.3585
1043.00	0.3589
1044.00	0.3594
1045.00	0.3598
1046.00	0.3603
1047.00	0.3607
1048.00	0.3612
1049.00	0.3616
1050.00	0.3620
1051.00	0.3624
1052.00	0.3628
1053.00	0.3632
1054.00	0.3635
1055.00	0.3639
1056.00	0.3643
1057.00	0.3647
1058.00	0.3651
1059.00	0.3654
1060.00	0.3658
1061.00	0.3662
1062.00	0.3665
1063.00	0.3669
1064.00	0.3672
1065.00	0.3676
1066.00	0.3679
1067.00	0.3682
1068.00	0.3685
1069.00	0.3688
1070.00	0.3690
1071.00	0.3693
1072.00	0.3696
1073.00	0.3698
1074.00	0.3701
1075.00	0.3704
1076.00	0.3707
1077.00	0.3710
1078.00	0.3712
1079.00	0.3715
1080.00	0.3717
1081.00	0.3719
1082.00	0.3721
1083.00	0.3723
1084.00	0.3725
1085.00	0.3727
1086.00	0.3728
1087.00	0.3730
1088.00	0.3732
1089.00	0.3733
1090.00	0.3735
1091.00	0.3737
1092.00	0.3739
1093.00	0.3741
1094.00	0.3742
1095.00	0.3744
1096.00	0.3746
1097.00	0.3748
1098.00	0.3749
1099.00	0.3751
1100.00	0.3752
1101.00	0.3754
1102.00	0.3756
1103.00	0.3758
1104.00	0.3760
1105.00	0.3762
1106.00	0.3765
1107.00	0.3768
1108.00	0.3771
1109.00	0.3774
1110.00	0.3777
1111.00	0.3781
1112.00	0.3785
1113.00	0.3789
1114.00	0.3791
1115.00	0.3793
1116.00	0.3794
1117.00	0.3793
1118.00	0.3791
1119.00	0.3787
1120.00	0.3782
1121.00	0.3775
1122.00	0.3767
1123.00	0.3759
1124.00	0.3749
1125.00	0.3739
1126.00	0.3728
1127.00	0.3717
1128.00	0.3707
1129.00	0.3697
1130.00	0.3688
1131.00	0.3679
1132.00	0.3671
1133.00	0.3663
1134.00	0.3656
1135.00	0.3649
1136.00	0.3643
1137.00	0.3636
1138.00	0.3628
1139.00	0.3620
1140.00	0.3611
1141.00	0.3601
1142.00	0.3590
1143.00	0.3577
1144.00	0.3564
1145.00	0.3549
1146.00	0.3535
1147.00	0.3520
1148.00	0.3507
1149.00	0.3493
1150.00	0.3481
1151.00	0.3471
1152.00	0.3462
1153.00	0.3453
1154.00	0.3447
1155.00	0.3441
1156.00	0.3436
1157.00	0.3432
1158.00	0.3428
1159.00	0.3425
1160.00	0.3423
1161.00	0.3421
1162.00	0.3419
1163.00	0.3417
1164.00	0.3416
1165.00	0.3415
1166.00	0.3414
1167.00	0.3414
1168.00	0.3414
1169.00	0.3414
1170.00	0.3415
1171.00	0.3415
1172.00	0.3416
1173.00	0.3417
1174.00	0.3418
1175.00	0.3418
1176.00	0.3418
1177.00	0.3418
1178.00	0.3418
1179.00	0.3418
1180.00	0.3417
1181.00	0.3416
1182.00	0.3414
1183.00	0.3413
1184.00	0.3412
1185.00	0.3411
1186.00	0.3410
1187.00	0.3409
1188.00	0.3409
1189.00	0.3409
1190.00	0.3410
1191.00	0.3411
1192.00	0.3413
1193.00	0.3415
1194.00	0.3417
1195.00	0.3419
1196.00	0.3421
1197.00	0.3423
1198.00	0.3426
1199.00	0.3428
1200.00	0.3431
1201.00	0.3433
1202.00	0.3436
1203.00	0.3439
1204.00	0.3441
1205.00	0.3444
1206.00	0.3448
1207.00	0.3451
1208.00	0.3455
1209.00	0.3458
1210.00	0.3461
1211.00	0.3465
1212.00	0.3468
1213.00	0.3472
1214.00	0.3476
1215.00	0.3480
1216.00	0.3484
1217.00	0.3488
1218.00	0.3492
1219.00	0.3496
1220.00	0.3501
1221.00	0.3505
1222.00	0.3509
1223.00	0.3514
1224.00	0.3519
1225.00	0.3523
1226.00	0.3527
1227.00	0.3532
1228.00	0.3536
1229.00	0.3540
1230.00	0.3545
1231.00	0.3549
1232.00	0.3554
1233.00	0.3558
1234.00	0.3563
1235.00	0.3567
1236.00	0.3571
1237.00	0.3576
1238.00	0.3580
1239.00	0.3584
1240.00	0.3588
1241.00	0.3592
1242.00	0.3596
1243.00	0.3601
1244.00	0.3605
1245.00	0.3609
1246.00	0.3613
1247.00	0.3617
1248.00	0.3622
1249.00	0.3626
1250.00	0.3631
1251.00	0.3635
1252.00	0.3639
1253.00	0.3644
1254.00	0.3648
1255.00	0.3653
1256.00	0.3657
1257.00	0.3661
1258.00	0.3665
1259.00	0.3669
1260.00	0.3672
1261.00	0.3675
1262.00	0.3678
1263.00	0.3680
1264.00	0.3683
1265.00	0.3684
1266.00	0.3686
1267.00	0.3687
1268.00	0.3688
1269.00	0.3689
1270.00	0.3690
1271.00	0.3691
1272.00	0.3693
1273.00	0.3694
1274.00	0.3695
1275.00	0.3696
1276.00	0.3697
1277.00	0.3698
1278.00	0.3699
1279.00	0.3699
1280.00	0.3700
1281.00	0.3700
1282.00	0.3700
1283.00	0.3699
1284.00	0.3698
1285.00	0.3698
1286.00	0.3697
1287.00	0.3696
1288.00	0.3695
1289.00	0.3694
1290.00	0.3692
1291.00	0.3690
1292.00	0.3688
1293.00	0.3686
1294.00	0.3683
1295.00	0.3680
1296.00	0.3677
1297.00	0.3673
1298.00	0.3669
1299.00	0.3665
1300.00	0.3660
1301.00	0.3655
1302.00	0.3649
1303.00	0.3643
1304.00	0.3637
1305.00	0.3630
1306.00	0.3623
1307.00	0.3616
1308.00	0.3608
1309.00	0.3600
1310.00	0.3591
1311.00	0.3581
1312.00	0.3572
1313.00	0.3561
1314.00	0.3551
1315.00	0.3540
1316.00	0.3529
1317.00	0.3518
1318.00	0.3507
1319.00	0.3496
1320.00	0.3485
1321.00	0.3474
1322.00	0.3463
1323.00	0.3452
1324.00	0.3440
1325.00	0.3428
1326.00	0.3415
1327.00	0.3401
1328.00	0.3386
1329.00	0.3370
1330.00	0.3354
1331.00	0.3338
1332.00	0.3321
1333.00	0.3305
1334.00	0.3290
1335.00	0.3275
1336.00	0.3262
1337.00	0.3251
1338.00	0.3242
1339.00	0.3234
1340.00	0.3229
1341.00	0.3225
1342.00	0.3222
1343.00	0.3222
1344.00	0.3226
1345.00	0.3232
1346.00	0.3239
1347.00	0.3243
1348.00	0.3242
1349.00	0.3238
1350.00	0.3230
1351.00	0.3224
1352.00	0.3219
1353.00	0.3214
1354.00	0.3207
1355.00	0.3190
1356.00	0.3166
1357.00	0.3137
1358.00	0.3106
1359.00	0.3078
1360.00	0.3053
1361.00	0.3031
1362.00	0.3013
1363.00	0.2994
1364.00	0.2975
1365.00	0.2954
1366.00	0.2935
1367.00	0.2920
1368.00	0.2911
1369.00	0.2910
1370.00	0.2915
1371.00	0.2919
1372.00	0.2920
1373.00	0.2913
1374.00	0.2899
1375.00	0.2883
1376.00	0.2867
1377.00	0.2856
1378.00	0.2847
1379.00	0.2841
1380.00	0.2835
1381.00	0.2830
1382.00	0.2826
1383.00	0.2823
1384.00	0.2820
1385.00	0.2812
1386.00	0.2801
1387.00	0.2787
1388.00	0.2774
1389.00	0.2760
1390.00	0.2743
1391.00	0.2721
1392.00	0.2693
1393.00	0.2665
1394.00	0.2637
1395.00	0.2610
1396.00	0.2584
1397.00	0.2556
1398.00	0.2525
1399.00	0.2492
1400.00	0.2455
1401.00	0.2411
1402.00	0.2361
1403.00	0.2303
1404.00	0.2240
1405.00	0.2176
1406.00	0.2114
1407.00	0.2054
1408.00	0.1995
1409.00	0.1939
1410.00	0.1886
1411.00	0.1835
1412.00	0.1787
1413.00	0.1742
1414.00	0.1700
1415.00	0.1661
1416.00	0.1624
1417.00	0.1590
1418.00	0.1557
1419.00	0.1526
1420.00	0.1496
1421.00	0.1466
1422.00	0.1438
1423.00	0.1413
1424.00	0.1390
1425.00	0.1370
1426.00	0.1352
1427.00	0.1336
1428.00	0.1322
1429.00	0.1309
1430.00	0.1298
1431.00	0.1287
1432.00	0.1277
1433.00	0.1267
1434.00	0.1258
1435.00	0.1250
1436.00	0.1242
1437.00	0.1233
1438.00	0.1225
1439.00	0.1217
1440.00	0.1209
1441.00	0.1200
1442.00	0.1190
1443.00	0.1180
1444.00	0.1169
1445.00	0.1158
1446.00	0.1146
1447.00	0.1134
1448.00	0.1122
1449.00	0.1110
1450.00	0.1099
1451.00	0.1089
1452.00	0.1081
1453.00	0.1074
1454.00	0.1070
1455.00	0.1068
1456.00	0.1068
1457.00	0.1070
1458.00	0.1074
1459.00	0.1078
1460.00	0.1084
1461.00	0.1090
1462.00	0.1097
1463.00	0.1104
1464.00	0.1111
1465.00	0.1118
1466.00	0.1124
1467.00	0.1129
1468.00	0.1134
1469.00	0.1138
1470.00	0.1142
1471.00	0.1146
1472.00	0.1149
1473.00	0.1153
1474.00	0.1156
1475.00	0.1159
1476.00	0.1163
1477.00	0.1166
1478.00	0.1168
1479.00	0.1170
1480.00	0.1172
1481.00	0.1174
1482.00	0.1177
1483.00	0.1181
1484.00	0.1184
1485.00	0.1188
1486.00	0.1192
1487.00	0.1196
1488.00	0.1199
1489.00	0.1203
1490.00	0.1206
1491.00	0.1210
1492.00	0.1215
1493.00	0.1220
1494.00	0.1225
1495.00	0.1231
1496.00	0.1236
1497.00	0.1242
1498.00	0.1248
1499.00	0.1255
1500.00	0.1263
1501.00	0.1271
1502.00	0.1279
1503.00	0.1287
1504.00	0.1294
1505.00	0.1301
1506.00	0.1309
1507.00	0.1317
1508.00	0.1324
1509.00	0.1332
1510.00	0.1340
1511.00	0.1348
1512.00	0.1357
1513.00	0.1365
1514.00	0.1374
1515.00	0.1382
1516.00	0.1391
1517.00	0.1400
1518.00	0.1409
1519.00	0.1418
1520.00	0.1427
1521.00	0.1436
1522.00	0.1445
1523.00	0.1454
1524.00	0.1462
1525.00	0.1471
1526.00	0.1480
1527.00	0.1489
1528.00	0.1497
1529.00	0.1506
1530.00	0.1515
1531.00	0.1523
1532.00	0.1532
1533.00	0.1541
1534.00	0.1549
1535.00	0.1558
1536.00	0.1566
1537.00	0.1575
1538.00	0.1583
1539.00	0.1592
1540.00	0.1601
1541.00	0.1610
1542.00	0.1618
1543.00	0.1627
1544.00	0.1636
1545.00	0.1645
1546.00	0.1653
1547.00	0.1661
1548.00	0.1670
1549.00	0.1679
1550.00	0.1687
1551.00	0.1696
1552.00	0.1705
1553.00	0.1714
1554.00	0.1722
1555.00	0.1730
1556.00	0.1739
1557.00	0.1747
1558.00	0.1755
1559.00	0.1764
1560.00	0.1772
1561.00	0.1780
1562.00	0.1788
1563.00	0.1796
1564.00	0.1803
1565.00	0.1811
1566.00	0.1819
1567.00	0.1827
1568.00	0.1835
1569.00	0.1842
1570.00	0.1850
1571.00	0.1858
1572.00	0.1865
1573.00	0.1873
1574.00	0.1880
1575.00	0.1887
1576.00	0.1893
1577.00	0.1900
1578.00	0.1906
1579.00	0.1913
1580.00	0.1919
1581.00	0.1926
1582.00	0.1933
1583.00	0.1940
1584.00	0.1946
1585.00	0.1953
1586.00	0.1960
1587.00	0.1967
1588.00	0.1974
1589.00	0.1981
1590.00	0.1989
1591.00	0.1996
1592.00	0.2002
1593.00	0.2008
1594.00	0.2015
1595.00	0.2021
1596.00	0.2028
1597.00	0.2035
1598.00	0.2041
1599.00	0.2048
1600.00	0.2055
1601.00	0.2062
1602.00	0.2069
1603.00	0.2076
1604.00	0.2083
1605.00	0.2090
1606.00	0.2097
1607.00	0.2104
1608.00	0.2110
1609.00	0.2116
1610.00	0.2121
1611.00	0.2126
1612.00	0.2130
1613.00	0.2135
1614.00	0.2139
1615.00	0.2144
1616.00	0.2149
1617.00	0.2153
1618.00	0.2158
1619.00	0.2163
1620.00	0.2169
1621.00	0.2174
1622.00	0.2179
1623.00	0.2185
1624.00	0.2190
1625.00	0.2196
1626.00	0.2201
1627.00	0.2207
1628.00	0.2212
1629.00	0.2217
1630.00	0.2222
1631.00	0.2227
1632.00	0.2231
1633.00	0.2235
1634.00	0.2239
1635.00	0.2242
1636.00	0.2246
1637.00	0.2249
1638.00	0.2252
1639.00	0.2255
1640.00	0.2258
1641.00	0.2262
1642.00	0.2265
1643.00	0.2270
1644.00	0.2274
1645.00	0.2278
1646.00	0.2282
1647.00	0.2285
1648.00	0.2289
1649.00	0.2292
1650.00	0.2294
1651.00	0.2296
1652.00	0.2298
1653.00	0.2299
1654.00	0.2301
1655.00	0.2302
1656.00	0.2303
1657.00	0.2304
1658.00	0.2305
1659.00	0.2306
1660.00	0.2307
1661.00	0.2307
1662.00	0.2308
1663.00	0.2309
1664.00	0.2310
1665.00	0.2311
1666.00	0.2312
1667.00	0.2313
1668.00	0.2313
1669.00	0.2314
1670.00	0.2315
1671.00	0.2315
1672.00	0.2315
1673.00	0.2315
1674.00	0.2316
1675.00	0.2316
1676.00	0.2316
1677.00	0.2316
1678.00	0.2315
1679.00	0.2315
1680.00	0.2314
1681.00	0.2314
1682.00	0.2313
1683.00	0.2312
1684.00	0.2312
1685.00	0.2311
1686.00	0.2310
1687.00	0.2309
1688.00	0.2307
1689.00	0.2305
1690.00	0.2303
1691.00	0.2301
1692.00	0.2299
1693.00	0.2297
1694.00	0.2294
1695.00	0.2292
1696.00	0.2289
1697.00	0.2287
1698.00	0.2284
1699.00	0.2282
1700.00	0.2279
1701.00	0.2277
1702.00	0.2274
1703.00	0.2270
1704.00	0.2267
1705.00	0.2263
1706.00	0.2259
1707.00	0.2255
1708.00	0.2251
1709.00	0.2246
1710.00	0.2242
1711.00	0.2238
1712.00	0.2234
1713.00	0.2230
1714.00	0.2226
1715.00	0.2223
1716.00	0.2219
1717.00	0.2215
1718.00	0.2211
1719.00	0.2206
1720.00	0.2202
1721.00	0.2198
1722.00	0.2193
1723.00	0.2188
1724.00	0.2183
1725.00	0.2179
1726.00	0.2174
1727.00	0.2169
1728.00	0.2165
1729.00	0.2161
1730.00	0.2157
1731.00	0.2154
1732.00	0.2152
1733.00	0.2149
1734.00	0.2147
1735.00	0.2145
1736.00	0.2143
1737.00	0.2140
1738.00	0.2136
1739.00	0.2132
1740.00	0.2127
1741.00	0.2121
1742.00	0.2114
1743.00	0.2107
1744.00	0.2100
1745.00	0.2092
1746.00	0.2085
1747.00	0.2078
1748.00	0.2072
1749.00	0.2066
1750.00	0.2061
1751.00	0.2056
1752.00	0.2051
1753.00	0.2046
1754.00	0.2040
1755.00	0.2035
1756.00	0.2029
1757.00	0.2023
1758.00	0.2017
1759.00	0.2011
1760.00	0.2005
1761.00	0.1999
1762.00	0.1994
1763.00	0.1989
1764.00	0.1984
1765.00	0.1980
1766.00	0.1976
1767.00	0.1972
1768.00	0.1968
1769.00	0.1964
1770.00	0.1960
1771.00	0.1956
1772.00	0.1952
1773.00	0.1948
1774.00	0.1944
1775.00	0.1940
1776.00	0.1937
1777.00	0.1933
1778.00	0.1931
1779.00	0.1930
1780.00	0.1929
1781.00	0.1929
1782.00	0.1929
1783.00	0.1930
1784.00	0.1932
1785.00	0.1933
1786.00	0.1934
1787.00	0.1935
1788.00	0.1935
1789.00	0.1936
1790.00	0.1936
1791.00	0.1937
1792.00	0.1938
1793.00	0.1941
1794.00	0.1945
1795.00	0.1951
1796.00	0.1957
1797.00	0.1965
1798.00	0.1973
1799.00	0.1982
1800.00	0.1992
1801.00	0.2003
1802.00	0.2014
1803.00	0.2023
1804.00	0.2032
1805.00	0.2038
1806.00	0.2043
1807.00	0.2046
1808.00	0.2048
1809.00	0.2047
1810.00	0.2045
1811.00	0.2043
1812.00	0.2039
1813.00	0.2033
1814.00	0.2027
1815.00	0.2019
1816.00	0.2011
1817.00	0.2003
1818.00	0.1996
1819.00	0.1990
1820.00	0.1983
1821.00	0.1976
1822.00	0.1969
1823.00	0.1963
1824.00	0.1956
1825.00	0.1949
1826.00	0.1942
1827.00	0.1936
1828.00	0.1929
1829.00	0.1922
1830.00	0.1915
1831.00	0.1909
1832.00	0.1902
1833.00	0.1895
1834.00	0.1888
1835.00	0.1882
1836.00	0.1875
1837.00	0.1868
1838.00	0.1861
1839.00	0.1855
1840.00	0.1848
1841.00	0.1841
1842.00	0.1834
1843.00	0.1828
1844.00	0.1821
1845.00	0.1814
1846.00	0.1808
1847.00	0.1801
1848.00	0.1794
1849.00	0.1787
1850.00	0.1781
1851.00	0.1774
1852.00	0.1767
1853.00	0.1760
1854.00	0.1754
1855.00	0.1747
1856.00	0.1740
1857.00	0.1733
1858.00	0.1727
1859.00	0.1720
1860.00	0.1713
1861.00	0.1706
1862.00	0.1700
1863.00	0.1693
1864.00	0.1686
1865.00	0.1679
1866.00	0.1673
1867.00	0.1666
1868.00	0.1659
1869.00	0.1653
1870.00	0.1646
1871.00	0.1639
1872.00	0.1632
1873.00	0.1626
1874.00	0.1619
1875.00	0.1612
1876.00	0.1605
1877.00	0.1599
1878.00	0.1592
1879.00	0.1585
1880.00	0.1578
1881.00	0.1572
1882.00	0.1565
1883.00	0.1558
1884.00	0.1551
1885.00	0.1545
1886.00	0.1538
1887.00	0.1531
1888.00	0.1524
1889.00	0.1518
1890.00	0.1511
1891.00	0.1504
1892.00	0.1498
1893.00	0.1491
1894.00	0.1484
1895.00	0.1477
1896.00	0.1471
1897.00	0.1464
1898.00	0.1457
1899.00	0.1450
1900.00	0.1444
1901.00	0.1437
1902.00	0.1430
1903.00	0.1423
1904.00	0.1417
1905.00	0.1410
1906.00	0.1403
1907.00	0.1396
1908.00	0.1390
1909.00	0.1383
1910.00	0.1376
1911.00	0.1369
1912.00	0.1363
1913.00	0.1356
1914.00	0.1349
1915.00	0.1343
1916.00	0.1336
1917.00	0.1329
1918.00	0.1322
1919.00	0.1316
1920.00	0.1309
1921.00	0.1302
1922.00	0.1295
1923.00	0.1289
1924.00	0.1282
1925.00	0.1275
1926.00	0.1268
1927.00	0.1262
1928.00	0.1255
1929.00	0.1248
1930.00	0.1241
1931.00	0.1235
1932.00	0.1228
1933.00	0.1221
1934.00	0.1214
1935.00	0.1208
1936.00	0.1201
1937.00	0.1194
1938.00	0.1188
1939.00	0.1181
1940.00	0.1174
1941.00	0.1167
1942.00	0.1161
1943.00	0.1154
1944.00	0.1147
1945.00	0.1140
1946.00	0.1134
1947.00	0.1127
1948.00	0.1120
1949.00	0.1113
1950.00	0.1107
1951.00	0.1100
1952.00	0.1093
1953.00	0.1086
1954.00	0.1080
1955.00	0.1073
1956.00	0.1066
1957.00	0.1059
1958.00	0.1053
1959.00	0.1046
1960.00	0.1039
1961.00	0.1033
1962.00	0.1026
1963.00	0.1019
1964.00	0.1012
1965.00	0.1006
1966.00	0.0999
1967.00	0.0992
1968.00	0.0985
1969.00	0.0979
1970.00	0.0972
1971.00	0.0965
1972.00	0.0958
1973.00	0.0952
1974.00	0.0945
1975.00	0.0938
1976.00	0.0931
1977.00	0.0925
1978.00	0.0918
1979.00	0.0911
1980.00	0.0904
1981.00	0.0898
1982.00	0.0891
1983.00	0.0884
1984.00	0.0878
1985.00	0.0871
1986.00	0.0864
1987.00	0.0857
1988.00	0.0851
1989.00	0.0844
1990.00	0.0837
1991.00	0.0830
1992.00	0.0824
1993.00	0.0817
1994.00	0.0810
1995.00	0.0803
1996.00	0.0797
1997.00	0.0790
1998.00	0.0783
1999.00	0.0776
2000.00	0.0770
2001.00	0.0763
2002.00	0.0756
2003.00	0.0749
2004.00	0.0743
2005.00	0.0736
2006.00	0.0731
2007.00	0.0726
2008.00	0.0721
2009.00	0.0715
2010.00	0.0705
2011.00	0.0692
2012.00	0.0677
2013.00	0.0661
2014.00	0.0644
2015.00	0.0628
2016.00	0.0615
2017.00	0.0604
2018.00	0.0595
2019.00	0.0590
2020.00	0.0587
2021.00	0.0587
2022.00	0.0591
2023.00	0.0598
2024.00	0.0607
2025.00	0.0616
2026.00	0.0625
2027.00	0.0632
2028.00	0.0636
2029.00	0.0639
2030.00	0.0642
2031.00	0.0644
2032.00	0.0645
2033.00	0.0647
2034.00	0.0651
2035.00	0.0656
2036.00	0.0662
2037.00	0.0668
2038.00	0.0674
2039.00	0.0679
2040.00	0.0683
2041.00	0.0687
2042.00	0.0692
2043.00	0.0698
2044.00	0.0705
2045.00	0.0713
2046.00	0.0721
2047.00	0.0727
2048.00	0.0731
2049.00	0.0731
2050.00	0.0729
2051.00	0.0726
2052.00	0.0721
2053.00	0.0714
2054.00	0.0704
2055.00	0.0693
2056.00	0.0682
2057.00	0.0671
2058.00	0.0663
2059.00	0.0658
2060.00	0.0658
2061.00	0.0662
2062.00	0.0670
2063.00	0.0680
2064.00	0.0690
2065.00	0.0700
2066.00	0.0709
2067.00	0.0718
2068.00	0.0724
2069.00	0.0730
2070.00	0.0733
2071.00	0.0736
2072.00	0.0738
2073.00	0.0739
2074.00	0.0740
2075.00	0.0741
2076.00	0.0742
2077.00	0.0744
2078.00	0.0748
2079.00	0.0753
2080.00	0.0758
2081.00	0.0762
2082.00	0.0766
2083.00	0.0769
2084.00	0.0772
2085.00	0.0776
2086.00	0.0779
2087.00	0.0784
2088.00	0.0790
2089.00	0.0796
2090.00	0.0803
2091.00	0.0811
2092.00	0.0819
2093.00	0.0828
2094.00	0.0837
2095.00	0.0847
2096.00	0.0858
2097.00	0.0869
2098.00	0.0878
2099.00	0.0886
2100.00	0.0891
2101.00	0.0895
2102.00	0.0897
2103.00	0.0899
2104.00	0.0900
2105.00	0.0901
2106.00	0.0904
2107.00	0.0911
2108.00	0.0920
2109.00	0.0933
2110.00	0.0947
2111.00	0.0962
2112.00	0.0976
2113.00	0.0990
2114.00	0.1003
2115.00	0.1016
2116.00	0.1026
2117.00	0.1034
2118.00	0.1039
2119.00	0.1041
2120.00	0.1040
2121.00	0.1036
2122.00	0.1031
2123.00	0.1026
2124.00	0.1023
2125.00	0.1021
2126.00	0.1021
2127.00	0.1021
2128.00	0.1021
2129.00	0.1021
2130.00	0.1021
2131.00	0.1022
2132.00	0.1025
2133.00	0.1029
2134.00	0.1033
2135.00	0.1037
2136.00	0.1039
2137.00	0.1038
2138.00	0.1037
2139.00	0.1035
2140.00	0.1033
2141.00	0.1031
2142.00	0.1030
2143.00	0.1030
2144.00	0.1031
2145.00	0.1032
2146.00	0.1034
2147.00	0.1038
2148.00	0.1044
2149.00	0.1052
2150.00	0.1061
2151.00	0.1071
2152.00	0.1079
2153.00	0.1087
2154.00	0.1095
2155.00	0.1103
2156.00	0.1112
2157.00	0.1121
2158.00	0.1129
2159.00	0.1137
2160.00	0.1143
2161.00	0.1147
2162.00	0.1150
2163.00	0.1151
2164.00	0.1152
2165.00	0.1152
2166.00	0.1151
2167.00	0.1148
2168.00	0.1143
2169.00	0.1135
2170.00	0.1127
2171.00	0.1117
2172.00	0.1108
2173.00	0.1099
2174.00	0.1091
2175.00	0.1086
2176.00	0.1084
2177.00	0.1085
2178.00	0.1090
2179.00	0.1098
2180.00	0.1107
2181.00	0.1117
2182.00	0.1126
2183.00	0.1134
2184.00	0.1139
2185.00	0.1142
2186.00	0.1140
2187.00	0.1135
2188.00	0.1125
2189.00	0.1111
2190.00	0.1096
2191.00	0.1080
2192.00	0.1067
2193.00	0.1057
2194.00	0.1051
2195.00	0.1049
2196.00	0.1051
2197.00	0.1054
2198.00	0.1059
2199.00	0.1065
2200.00	0.1071
2201.00	0.1078
2202.00	0.1085
2203.00	0.1092
2204.00	0.1097
2205.00	0.1101
2206.00	0.1102
2207.00	0.1102
2208.00	0.1100
2209.00	0.1097
2210.00	0.1093
2211.00	0.1090
2212.00	0.1085
2213.00	0.1081
2214.00	0.1076
2215.00	0.1072
2216.00	0.1068
2217.00	0.1065
2218.00	0.1063
2219.00	0.1061
2220.00	0.1061
2221.00	0.1062
2222.00	0.1063
2223.00	0.1064
2224.00	0.1064
2225.00	0.1065
2226.00	0.1065
2227.00	0.1064
2228.00	0.1063
2229.00	0.1062
2230.00	0.1060
2231.00	0.1059
2232.00	0.1057
2233.00	0.1055
2234.00	0.1053
2235.00	0.1051
2236.00	0.1049
2237.00	0.1047
2238.00	0.1045
2239.00	0.1042
2240.00	0.1040
2241.00	0.1037
2242.00	0.1034
2243.00	0.1030
2244.00	0.1027
2245.00	0.1023
2246.00	0.1020
2247.00	0.1016
2248.00	0.1012
2249.00	0.1008
2250.00	0.1004
2251.00	0.1000
2252.00	0.0996
2253.00	0.0992
2254.00	0.0988
2255.00	0.0983
2256.00	0.0979
2257.00	0.0975
2258.00	0.0970
2259.00	0.0966
2260.00	0.0962
2261.00	0.0957
2262.00	0.0952
2263.00	0.0948
2264.00	0.0943
2265.00	0.0938
2266.00	0.0934
2267.00	0.0929
2268.00	0.0924
2269.00	0.0919
2270.00	0.0913
2271.00	0.0909
2272.00	0.0904
2273.00	0.0899
2274.00	0.0895
2275.00	0.0891
2276.00	0.0887
2277.00	0.0883
2278.00	0.0879
2279.00	0.0876
2280.00	0.0872
2281.00	0.0868
2282.00	0.0864
2283.00	0.0861
2284.00	0.0857
2285.00	0.0853
2286.00	0.0850
2287.00	0.0846
2288.00	0.0842
2289.00	0.0839
2290.00	0.0835
2291.00	0.0831
2292.00	0.0827
2293.00	0.0823
2294.00	0.0819
2295.00	0.0815
2296.00	0.0811
2297.00	0.0807
2298.00	0.0804
2299.00	0.0800
2300.00	0.0797
2301.00	0.0794
2302.00	0.0791
2303.00	0.0788
2304.00	0.0786
2305.00	0.0783
2306.00	0.0781
2307.00	0.0779
2308.00	0.0777
2309.00	0.0776
2310.00	0.0774
2311.00	0.0772
2312.00	0.0770
2313.00	0.0768
2314.00	0.0766
2315.00	0.0764
2316.00	0.0762
2317.00	0.0760
2318.00	0.0758
2319.00	0.0756
2320.00	0.0754
2321.00	0.0752
2322.00	0.0751
2323.00	0.0750
2324.00	0.0749
2325.00	0.0749
2326.00	0.0749
2327.00	0.0750
2328.00	0.0751
2329.00	0.0752
2330.00	0.0754
2331.00	0.0756
2332.00	0.0758
2333.00	0.0761
2334.00	0.0763
2335.00	0.0765
2336.00	0.0767
2337.00	0.0768
2338.00	0.0769
2339.00	0.0770
2340.00	0.0771
2341.00	0.0772
2342.00	0.0772
2343.00	0.0773
2344.00	0.0774
2345.00	0.0775
2346.00	0.0777
2347.00	0.0778
2348.00	0.0779
2349.00	0.0779
2350.00	0.0780
2351.00	0.0781
2352.00	0.0781
2353.00	0.0781
2354.00	0.0780
2355.00	0.0779
2356.00	0.0777
2357.00	0.0775
2358.00	0.0773
2359.00	0.0771
2360.00	0.0768
2361.00	0.0765
2362.00	0.0762
2363.00	0.0758
2364.00	0.0754
2365.00	0.0750
2366.00	0.0746
2367.00	0.0742
2368.00	0.0739
2369.00	0.0735
2370.00	0.0732
2371.00	0.0729
2372.00	0.0726
2373.00	0.0723
2374.00	0.0720
2375.00	0.0718
2376.00	0.0715
2377.00	0.0712
2378.00	0.0709
2379.00	0.0706
2380.00	0.0702
2381.00	0.0699
2382.00	0.0695
2383.00	0.0691
2384.00	0.0687
2385.00	0.0682
2386.00	0.0677
2387.00	0.0672
2388.00	0.0667
2389.00	0.0662
2390.00	0.0656
2391.00	0.0651
2392.00	0.0644
2393.00	0.0638
2394.00	0.0631
2395.00	0.0623
2396.00	0.0616
2397.00	0.0609
2398.00	0.0602
2399.00	0.0595
2400.00	0.0589
2401.00	0.0583
2402.00	0.0577
2403.00	0.0571
2404.00	0.0566
2405.00	0.0561
2406.00	0.0557
2407.00	0.0553
2408.00	0.0549
2409.00	0.0546
2410.00	0.0542
2411.00	0.0539
2412.00	0.0536
2413.00	0.0533
2414.00	0.0531
2415.00	0.0529
2416.00	0.0527
2417.00	0.0526
2418.00	0.0525
2419.00	0.0523
2420.00	0.0522
2421.00	0.0521
2422.00	0.0519
2423.00	0.0518
2424.00	0.0516
2425.00	0.0514
2426.00	0.0511
2427.00	0.0508
2428.00	0.0506
2429.00	0.0505
2430.00	0.0505
2431.00	0.0506
2432.00	0.0507
2433.00	0.0508
2434.00	0.0509
2435.00	0.0510
2436.00	0.0512
2437.00	0.0513
2438.00	0.0514
2439.00	0.0514
2440.00	0.0511
2441.00	0.0506
2442.00	0.0498
2443.00	0.0488
2444.00	0.0477
2445.00	0.0467
2446.00	0.0457
2447.00	0.0448
2448.00	0.0440
2449.00	0.0432
2450.00	0.0424
2451.00	0.0419
2452.00	0.0416
2453.00	0.0416
2454.00	0.0417
2455.00	0.0420
2456.00	0.0422
2457.00	0.0423
2458.00	0.0424
2459.00	0.0423
2460.00	0.0421
2461.00	0.0419
2462.00	0.0417
2463.00	0.0415
2464.00	0.0411
2465.00	0.0407
2466.00	0.0402
2467.00	0.0398
2468.00	0.0394
2469.00	0.0392
2470.00	0.0390
2471.00	0.0389
2472.00	0.0388
2473.00	0.0387
2474.00	0.0387
2475.00	0.0386
2476.00	0.0385
2477.00	0.0384
2478.00	0.0382
2479.00	0.0379
2480.00	0.0376
2481.00	0.0373
2482.00	0.0369
2483.00	0.0365
2484.00	0.0360
2485.00	0.0356
2486.00	0.0351
2487.00	0.0346
2488.00	0.0341
2489.00	0.0336
2490.00	0.0331
2491.00	0.0326
2492.00	0.0321
2493.00	0.0317
2494.00	0.0313
2495.00	0.0308
2496.00	0.0305
2497.00	0.0301
2498.00	0.0298
2499.00	0.0297
2500.00	0.0296
